Angular Position ( deg )	Relative Intensity (  )
0.0	194.63
0.0	194.64
0.0	194.85
0.0	194.66
0.0	194.72
0.0	194.63
0.0	194.56
0.0	194.46
0.0	194.55
0.0	194.70
0.0	194.64
0.1	196.52
0.1	197.03
0.1	197.14
0.1	197.28
0.7	210.20
1.5	232.35
2.3	253.78
3.3	276.20
4.3	305.49
5.7	343.86
7.1	388.43
8.6	438.35
10.3	497.82
12.2	567.79
13.9	636.46
15.4	696.21
16.8	756.53
18.3	815.99
19.4	865.73
20.3	906.92
21.1	943.08
21.4	960.65
21.4	960.77
21.4	961.24
21.4	960.73
21.4	958.55
21.4	958.91
21.4	958.64
21.4	958.31
21.4	958.13
21.4	958.11
21.4	958.15
21.4	958.25
21.4	957.72
21.4	957.64
21.4	957.93
21.4	957.85
21.4	958.36
21.4	959.00
21.4	960.47
21.5	964.50
21.6	975.90
23.3	1056.54
24.4	1106.79
25.5	1160.01
26.5	1210.19
27.8	1272.89
29.3	1345.82
31.1	1427.13
32.9	1524.95
34.7	1611.95
36.5	1698.08
38.1	1776.37
39.8	1861.06
41.7	1944.38
43.4	2019.59
45.5	2104.40
47.4	2180.14
49.6	2268.75
51.5	2338.00
53.2	2397.47
55.0	2460.69
56.3	2506.73
56.5	2516.28
56.6	2516.59
56.6	2516.04
56.6	2516.93
56.6	2517.08
56.6	2517.13
56.6	2516.92
56.6	2517.08
56.6	2516.72
56.6	2516.93
56.6	2516.97
56.6	2517.40
56.6	2516.70
56.6	2516.61
56.6	2515.93
56.6	2515.94
56.6	2515.95
56.6	2518.89
56.6	2520.41
56.6	2520.29
56.8	2526.65
56.8	2521.86
57.6	2541.80
57.8	2546.04
57.7	2534.39
57.7	2542.22
57.8	2543.92
59.5	2576.65
59.7	2579.25
60.0	2589.70
61.1	2609.44
61.7	2624.64
62.8	2645.22
63.8	2671.40
64.6	2688.33
65.6	2704.13
66.6	2722.58
68.0	2745.96
70.0	2759.39
70.8	2777.42
73.1	2799.85
74.4	2805.10
75.8	2805.29
76.7	2806.93
78.4	2804.84
79.9	2797.19
81.4	2785.26
82.5	2772.18
83.5	2758.66
84.8	2745.68
86.0	2729.78
87.0	2710.53
88.3	2686.75
89.7	2660.05
90.5	2631.05
91.9	2595.25
93.4	2560.78
94.4	2523.73
95.9	2481.72
97.5	2430.45
99.7	2352.79
102.4	2254.33
105.3	2140.73
108.4	2012.97
111.0	1895.00
113.1	1798.14
115.3	1697.80
117.6	1574.23
120.0	1465.49
122.7	1346.65
124.9	1238.57
127.2	1136.32
129.5	1024.15
130.9	950.53
131.7	919.87
131.7	918.99
131.7	919.16
131.7	920.92
131.7	921.29
131.7	920.83
131.7	921.36
131.7	921.01
131.7	920.97
131.7	921.12
131.7	921.00
131.7	920.87
131.7	921.30
131.7	920.64
131.7	920.86
131.7	920.45
131.7	919.57
131.7	919.16
132.5	889.43
134.0	819.29
135.8	743.29
137.6	670.38
139.1	610.43
140.3	564.73
140.7	548.57
142.2	502.77
142.0	497.47
142.1	496.11
143.7	451.92
144.3	422.53
144.5	411.71
145.8	377.86
146.5	349.36
147.9	311.57
149.5	266.42
150.9	228.59
152.4	191.70
154.0	158.87
154.2	154.81
156.0	122.49
157.3	102.53
157.4	100.44
158.9	81.98
160.3	69.44
160.5	59.67
162.3	49.41
164.0	40.25
165.1	36.05
166.6	34.94
168.2	37.56
170.0	45.76
171.9	60.98
173.8	79.04
175.9	108.42
178.2	151.15
180.7	206.73
183.5	266.94
186.2	346.97
188.4	417.74
190.4	487.60
192.2	555.13
193.7	613.63
195.3	674.82
196.7	736.47
198.5	806.16
199.9	870.95
200.6	905.72
200.7	906.18
200.7	905.68
200.7	905.06
200.7	904.04
200.7	904.10
200.7	904.44
200.7	904.12
200.7	904.22
200.7	904.60
200.7	904.24
200.7	904.37
200.7	904.16
200.7	904.12
200.7	904.11
200.7	904.10
200.7	904.29
200.7	904.60
200.7	904.53
200.7	904.45
200.7	904.34
200.7	904.31
200.7	904.36
201.0	916.85
201.9	950.79
203.4	1026.81
204.2	1058.59
204.8	1092.44
205.5	1130.25
206.6	1179.18
208.3	1249.07
209.6	1322.07
211.2	1399.67
212.9	1489.59
214.3	1552.91
216.0	1635.92
218.3	1733.70
220.1	1819.00
222.0	1897.29
223.5	1985.48
225.1	2052.88
226.9	2125.16
228.2	2179.78
230.3	2255.71
232.1	2323.74
233.9	2386.19
235.7	2445.50
237.3	2498.16
239.1	2549.04
240.9	2599.63
242.6	2638.88
244.6	2673.77
246.4	2706.43
248.2	2730.87
250.1	2750.65
252.1	2768.20
253.9	2777.43
255.7	2782.10
257.8	2780.82
260.6	2766.70
263.3	2738.46
265.4	2711.34
266.9	2686.86
267.1	2681.97
267.1	2682.22
267.1	2682.59
267.1	2682.69
267.1	2684.57
267.1	2684.33
267.1	2684.84
267.1	2684.43
267.1	2684.52
267.1	2684.72
267.1	2684.30
267.1	2684.41
267.1	2683.94
267.1	2684.30
267.1	2683.79
267.1	2683.11
267.1	2683.12
267.1	2683.13
267.1	2683.09
267.1	2683.15
267.1	2683.36
267.1	2683.14
267.1	2682.81
267.1	2682.21
267.1	2681.88
267.8	2671.65
267.8	2672.12
268.6	2661.46
269.5	2645.48
270.2	2625.81
271.4	2598.43
272.9	2559.62
274.3	2522.53
275.8	2486.79
277.4	2439.37
279.0	2388.37
280.6	2334.46
282.2	2277.86
283.5	2231.21
285.1	2165.79
286.7	2103.37
288.5	2037.19
290.0	1972.20
291.3	1911.01
292.8	1845.24
293.9	1784.06
295.7	1706.78
297.4	1633.00
299.1	1538.49
301.0	1456.97
302.6	1380.22
304.3	1291.75
306.4	1200.45
308.3	1108.46
310.5	1005.33
312.8	904.97
314.5	822.94
316.9	723.47
319.2	629.48
321.7	533.06
324.8	421.71
328.1	320.80
331.7	221.91
335.6	135.95
339.1	85.83
341.6	57.06
341.6	57.36
341.6	57.33
341.6	57.22
341.6	57.27
341.6	57.17
341.6	57.18
341.6	57.29
341.6	57.55
341.6	57.57
341.6	57.66
341.6	57.67
341.6	57.63
341.6	57.61
341.6	57.63
341.6	57.60
341.6	57.71
341.6	57.61
341.6	57.64
341.6	57.55
341.6	57.54
341.6	57.52
341.6	57.50
341.6	57.46
341.6	57.49
341.6	57.50
341.6	57.07
341.6	56.89
342.5	50.76
343.8	41.92
344.9	37.96
345.1	36.63
346.1	35.25
347.7	35.46
348.9	38.43
350.0	44.10
351.5	53.04
353.0	66.06
354.0	77.25
355.1	92.14
356.6	115.16
358.5	141.75
359.7	167.78
361.1	199.57
363.2	252.70
365.4	311.97
367.4	371.20
369.5	438.51
371.3	508.01
373.6	593.19
375.5	667.95
377.5	747.28
379.5	839.09
381.8	939.66
384.1	1046.43
386.3	1153.50
388.8	1271.88
391.3	1394.64
393.5	1501.09
395.6	1599.04
397.2	1682.80
399.0	1763.74
400.5	1846.71
401.9	1915.09
403.7	1990.72
405.5	2069.67
407.6	2156.86
410.1	2260.30
412.4	2343.76
413.0	2370.42
413.1	2369.99
413.1	2372.00
413.1	2373.31
413.1	2374.76
413.1	2375.60
413.1	2375.76
413.1	2374.26
413.1	2374.17
413.1	2374.97
413.1	2373.84
413.1	2374.23
413.1	2374.87
413.1	2374.36
413.1	2374.22
413.1	2374.29
413.1	2373.33
413.1	2374.23
413.1	2375.23
413.1	2374.83
413.1	2373.45
413.1	2373.69
413.1	2373.72
413.1	2374.81
413.1	2375.32
413.1	2377.08
413.1	2377.08
413.1	2377.43
413.1	2377.83
413.1	2380.16
413.2	2384.53
413.2	2384.75
413.2	2385.15
413.4	2390.90
413.5	2394.07
414.5	2406.89
415.1	2436.14
415.2	2444.00
417.0	2502.70
417.6	2521.07
419.6	2558.05
421.1	2618.47
421.9	2635.01
424.4	2680.76
426.4	2714.02
428.6	2744.60
429.8	2756.91
432.8	2785.87
435.2	2793.31
437.4	2800.21
439.7	2792.11
442.6	2774.99
444.9	2751.44
447.4	2716.25
450.0	2659.84
452.8	2591.48
455.3	2521.63
457.7	2445.91
460.4	2358.31
462.5	2275.28
464.9	2185.43
467.2	2079.88
469.4	1986.63
471.8	1883.07
474.1	1777.39
476.8	1656.43
479.5	1533.65
482.4	1395.69
485.5	1251.27
487.4	1146.68
489.2	1072.62
490.1	1027.28
490.9	987.40
491.1	976.07
491.1	976.49
491.1	976.49
491.1	976.31
491.1	976.75
491.1	979.38
491.0	979.36
491.0	979.75
491.0	979.50
491.0	978.99
491.0	978.81
491.0	979.30
491.0	979.76
491.0	979.91
491.0	979.69
491.0	979.62
491.0	979.74
491.0	979.54
491.0	978.89
